File: CRYSTAL-IR-RAMAN/IR.log.csv
E(cm-1),I
0.01,6.18456e-182
3.41065,5.95166e-176
6.81129,4.54486e-170
10.2119,2.75394e-164
13.6126,1.32417e-158
17.0132,5.05224e-153
20.4139,1.5296e-147
23.8145,3.67472e-142
27.2152,7.00527e-137
30.6158,1.05969e-131
34.0165,1.27199e-126
37.4171,1.21155e-121
40.8178,9.157e-117
44.2184,5.49184e-112
47.619,2.61358e-107
51.0197,9.86974e-103
54.4203,2.95753e-98
57.821,7.03243e-94
61.2216,1.32689e-89
64.6223,1.98663e-85
68.0229,2.36022e-81
71.4236,2.22505e-77
74.8242,1.66449e-73
78.2249,9.88042e-70
81.6255,4.65396e-66
85.0262,1.73949e-62
88.4268,5.15912e-59
91.8274,1.21417e-55
95.2281,2.26746e-52
98.6287,3.3601e-49
102.029,3.95108e-46
105.43,3.68667e-43
108.831,2.72963e-40
112.231,1.60372e-37
115.632,7.47661e-35
119.033,2.76588e-32
122.433,8.11926e-30
125.834,1.89126e-27
129.235,3.49575e-25
132.635,5.12721e-23
136.036,5.96726e-21
139.436,5.5109e-19
142.837,4.03852e-17
146.238,2.34842e-15
149.638,1.08363e-13
153.039,3.96771e-12
156.44,1.1528e-10
159.84,2.65777e-09
163.241,4.86222e-08
166.642,7.05839e-07
170.042,8.13072e-06
173.443,7.432e-05
176.844,0.000539058
180.244,0.00310254
183.645,0.0141695
187.046,0.0513501
190.446,0.147667
193.847,0.336959
197.247,0.610133
200.648,0.876647
204.049,0.999489
207.449,0.904241
210.85,0.649147
214.251,0.36979
217.651,0.167155
221.052,0.0599567
224.453,0.0170651
227.853,0.00385419
231.254,0.000690732
234.655,9.82288e-05
238.055,1.10846e-05
241.456,9.92561e-07
244.857,7.05254e-08
248.257,3.97637e-09
251.658,1.77902e-10
255.058,6.31581e-12
258.459,1.78052e-13
261.86,1.07743e-14
265.26,2.80881e-13
268.661,9.20571e-12
272.062,2.39471e-10
275.462,4.94314e-09
278.863,8.09665e-08
282.264,1.05235e-06
285.664,1.08535e-05
289.065,8.88239e-05
292.466,0.000576825
295.866,0.00297243
299.267,0.0121543
302.668,0.039437
306.068,0.101538
309.469,0.207448
312.869,0.336311
316.27,0.432639
319.671,0.441635
323.071,0.357729
326.472,0.229931
329.873,0.117272
333.273,0.0474617
336.674,0.0152421
340.075,0.0038842
343.475,0.000785434
346.876,0.000126029
350.277,1.60467e-05
353.677,1.62126e-06
357.078,1.29996e-07
360.478,8.69885e-09
363.879,8.92911e-09
367.28,1.33716e-07
370.68,1.66646e-06
374.081,1.64821e-05
377.482,0.000129356
380.882,0.000805583
384.283,0.00398096
387.684,0.0156106
391.084,0.0485739
394.485,0.119933
397.886,0.234979
401.286,0.365318
404.687,0.450679
408.088,0.44118
411.488,0.342702
414.889,0.211238
418.289,0.103319
421.69,0.0400995
425.091,0.0123496
428.491,0.00301799
431.892,0.000585244
435.293,9.00553e-05
438.693,1.0996e-05
442.094,1.0654e-06
445.495,8.19111e-08
448.895,4.9972e-09
452.296,2.41915e-10
455.697,9.29295e-12
459.097,2.83267e-13
462.498,6.85159e-15
465.899,1.31504e-16
469.299,2.00282e-18
472.7,2.42045e-20
476.1,2.32115e-22
479.501,1.7663e-24
482.902,1.06654e-26
486.302,5.11027e-29
489.703,1.94296e-31
493.104,5.86186e-34
496.504,1.40333e-36
499.905,2.66587e-39
503.306,4.01855e-42
506.706,4.80677e-45
510.107,4.56237e-48
513.508,3.43621e-51
516.908,2.05363e-54
520.309,9.7391e-58
523.71,3.66494e-61
527.11,1.09438e-64
530.511,2.59313e-68
533.911,4.87563e-72
537.312,7.27431e-76
540.713,8.61202e-80
544.113,8.09043e-84
547.514,6.03102e-88
550.915,3.56749e-92
554.315,1.67451e-96
557.716,6.23687e-101
561.117,1.84331e-105
564.517,4.32297e-110
567.918,8.04487e-115
571.319,1.18798e-119
574.719,1.39204e-124
578.12,1.29434e-129
581.52,9.54985e-135
584.921,5.59112e-140
588.322,2.59749e-145
591.722,9.57549e-151
595.123,2.80105e-156
598.524,6.50182e-162
601.924,1.19757e-167
605.325,1.75034e-173
608.726,2.02999e-179
612.126,1.86818e-185
615.527,1.36426e-191
618.928,7.90549e-198
622.328,3.63507e-204
625.729,1.32633e-210
629.13,3.84008e-217
632.53,8.82233e-224
635.931,1.60835e-230
639.331,2.32664e-237
642.732,2.67073e-244
646.133,2.43268e-251
649.533,1.7583e-258
652.934,1.00845e-265
656.335,4.58952e-273
659.735,1.65743e-280
663.136,4.74957e-288
666.537,1.08001e-295
669.937,1.94873e-303
673.338,2.79017e-311
676.739,3.17e-319
680.139,0.0
683.54,0.0
686.941,0.0
690.341,0.0
693.742,0.0
697.142,0.0
700.543,0.0
703.944,0.0
707.344,0.0
710.745,0.0
714.146,0.0
717.546,0.0
720.947,0.0
724.348,0.0
727.748,0.0
731.149,0.0
734.55,0.0
737.95,0.0
741.351,0.0
744.752,0.0
748.152,0.0
751.553,0.0
754.953,0.0
758.354,0.0
761.755,0.0
765.155,0.0
768.556,0.0
771.957,0.0
775.357,0.0
778.758,0.0
782.159,0.0
785.559,0.0
788.96,0.0
792.361,0.0
795.761,0.0
799.162,0.0
802.562,0.0
805.963,0.0
809.364,0.0
812.764,0.0
816.165,0.0
819.566,0.0
822.966,0.0
826.367,0.0
829.768,0.0
833.168,0.0
836.569,0.0
839.97,0.0
843.37,0.0
846.771,0.0
850.172,0.0
853.572,0.0
856.973,0.0
860.373,0.0
863.774,0.0
867.175,0.0
870.575,0.0
873.976,0.0
877.377,0.0
880.777,0.0
884.178,0.0
887.579,0.0
890.979,0.0
894.38,0.0
897.781,0.0
901.181,0.0
904.582,0.0
907.983,0.0
911.383,0.0
914.784,0.0
918.184,0.0
921.585,0.0
924.986,0.0
928.386,0.0
931.787,0.0
935.188,0.0
938.588,0.0
941.989,0.0
945.39,0.0
948.79,0.0
952.191,0.0
955.592,0.0
958.992,0.0
962.393,0.0
965.794,0.0
969.194,0.0
972.595,0.0
975.995,0.0
979.396,0.0
982.797,0.0
986.197,0.0
989.598,0.0
992.999,0.0
996.399,0.0
999.8,0.0
1000.0,0.0