File: CRYSTAL-IR-RAMAN/IR.log-IR.csv
E(cm-1),I
0.01,6.18473e-182
2.47701,1.3866e-177
4.94402,2.75244e-173
7.41103,4.8375e-169
9.87804,7.52768e-165
12.3451,1.03714e-160
14.8121,1.26517e-156
17.2791,1.36647e-152
19.7461,1.30672e-148
22.2131,1.10638e-144
24.6801,8.29401e-141
27.1471,5.50502e-137
29.6141,3.23512e-133
32.0811,1.68329e-129
34.5482,7.75465e-126
37.0152,3.16302e-122
39.4822,1.1423e-118
41.9492,3.65252e-115
44.4162,1.03405e-111
46.8832,2.59196e-108
49.3502,5.75244e-105
51.8172,1.13034e-101
54.2842,1.96656e-98
56.7512,3.02927e-95
59.2183,4.13149e-92
61.6853,4.98898e-89
64.1523,5.334e-86
66.6193,5.0493e-83
69.0863,4.232e-80
71.5533,3.14048e-77
74.0203,2.0634e-74
76.4873,1.20035e-71
78.9543,6.18254e-69
81.4214,2.81944e-66
83.8884,1.1384e-63
86.3554,4.06973e-61
88.8224,1.28816e-58
91.2894,3.61005e-56
93.7564,8.95761e-54
96.2234,1.96792e-51
98.6904,3.82789e-49
101.157,6.59245e-47
103.624,1.00524e-44
106.091,1.35716e-42
108.558,1.62229e-40
111.025,1.71697e-38
113.492,1.60892e-36
115.96,1.33487e-34
118.427,9.80581e-33
120.894,6.37768e-31
123.361,3.67265e-29
125.828,1.87254e-27
128.295,8.45318e-26
130.762,3.37867e-24
133.229,1.19566e-22
135.696,3.74633e-21
138.163,1.0393e-19
140.63,2.55277e-18
143.097,5.55161e-17
145.564,1.06896e-15
148.031,1.8224e-14
150.498,2.75081e-13
152.965,3.67632e-12
155.432,4.35014e-11
157.899,4.55753e-10
160.366,4.22758e-09
162.833,3.47209e-08
165.3,2.5248e-07
167.767,1.62554e-06
170.234,9.2663e-06
172.701,4.67683e-05
175.168,0.000208993
177.635,0.000826895
180.102,0.00289671
182.569,0.00898452
185.036,0.024673
187.503,0.0599909
189.97,0.129147
192.437,0.246162
194.904,0.415427
197.371,0.620732
199.838,0.821201
202.305,0.961904
204.772,0.997586
207.239,0.916021
209.706,0.744726
212.173,0.536074
214.64,0.341656
217.107,0.192792
219.574,0.0963223
222.041,0.0426089
224.508,0.0166882
226.975,0.00578705
229.442,0.00177681
231.909,0.000483014
234.376,0.000116256
236.843,2.47747e-05
239.31,4.67451e-06
241.777,7.80911e-07
244.244,1.15506e-07
246.711,1.51266e-08
249.178,1.75394e-09
251.645,1.80064e-10
254.112,1.63672e-11
256.579,1.31723e-12
259.046,9.41221e-14
261.513,1.05133e-14
263.98,7.14199e-14
266.447,9.74486e-13
268.914,1.18269e-11
271.381,1.27089e-10
273.848,1.20916e-09
276.315,1.01858e-08
278.782,7.59699e-08
281.249,5.01679e-07
283.716,2.93323e-06
286.183,1.51846e-05
288.65,6.95979e-05
291.117,0.00028244
293.584,0.00101483
296.051,0.00322846
298.518,0.00909356
300.985,0.0226782
303.452,0.0500751
305.919,0.0978971
308.386,0.169455
310.853,0.259702
313.32,0.352398
315.787,0.423378
318.254,0.450359
320.721,0.424156
323.188,0.353695
325.655,0.261137
328.122,0.170705
330.589,0.0988003
333.056,0.05063
335.523,0.0229717
337.99,0.00922817
340.457,0.00328227
342.924,0.00103364
345.392,0.000288204
347.859,7.11489e-05
350.326,1.55515e-05
352.793,3.00963e-06
355.26,5.15695e-07
357.727,7.8268e-08
360.194,1.08402e-08
362.661,4.24882e-09
365.128,2.41651e-08
367.595,1.70539e-07
370.062,1.07129e-06
372.529,5.95872e-06
374.996,2.93453e-05
377.463,0.000127956
379.93,0.000493988
382.397,0.00168854
384.864,0.00511024
387.331,0.0136933
389.798,0.0324871
392.265,0.0682419
394.732,0.126919
397.199,0.208997
399.666,0.304712
402.133,0.393346
404.6,0.449569
407.067,0.454941
409.534,0.407615
412.001,0.323356
414.468,0.227117
416.935,0.141239
419.402,0.0777667
421.869,0.0379115
424.336,0.0163638
426.803,0.00625366
429.27,0.00211602
431.737,0.000633933
434.204,0.000168152
436.671,3.9491e-05
439.138,8.21166e-06
441.605,1.51182e-06
444.072,2.46436e-07
446.539,3.55669e-08
449.006,4.5449e-09
451.473,5.14207e-10
453.94,5.15097e-11
456.407,4.56853e-12
458.874,3.58757e-13
461.341,2.49437e-14
463.808,1.53552e-15
466.275,8.36931e-17
468.742,4.03886e-18
471.209,1.7257e-19
473.676,6.52841e-21
476.143,2.18669e-22
478.61,6.48487e-24
481.077,1.70276e-25
483.544,3.9586e-27
486.011,8.14828e-29
488.478,1.485e-30
490.945,2.39621e-32
493.412,3.4234e-34
495.879,4.33041e-36
498.346,4.84993e-38
500.813,4.80926e-40
503.28,4.22239e-42
505.747,3.28227e-44
508.214,2.25906e-46
510.681,1.37663e-48
513.148,7.42748e-51
515.615,3.54816e-53
518.082,1.50073e-55
520.549,5.62e-58
523.016,1.86341e-60
525.483,5.47035e-63
527.95,1.42187e-65
530.417,3.2722e-68
532.884,6.6674e-71
535.351,1.20285e-73
537.818,1.92132e-76
540.285,2.71723e-79
542.752,3.40243e-82
545.219,3.77214e-85
547.686,3.70274e-88
550.153,3.21807e-91
552.62,2.4763e-94
555.087,1.68713e-97
557.554,1.01772e-100
560.021,5.43561e-104
562.488,2.57041e-107
564.955,1.0762e-110
567.422,3.98952e-114
569.889,1.30943e-117
572.356,3.80526e-121
574.824,9.79085e-125
577.291,2.23045e-128
579.758,4.49886e-132
582.225,8.03431e-136
584.692,1.27037e-139
587.159,1.77848e-143
589.626,2.20447e-147
592.093,2.41933e-151
594.56,2.35084e-155
597.027,2.0225e-159
599.494,1.5406e-163
601.961,1.03903e-167
604.428,6.20441e-172
606.895,3.28028e-176
609.362,1.53553e-180
611.829,6.36415e-185
614.296,2.33539e-189
616.763,7.5878e-194
619.23,2.18277e-198
621.697,5.55952e-203
624.164,1.25373e-207
626.631,2.50325e-212
629.098,4.4253e-217
631.565,6.92655e-222
634.032,9.59905e-227
636.499,1.17781e-231
638.966,1.27956e-236
641.433,1.23078e-241
643.9,1.04818e-246
646.367,7.90369e-252
648.834,5.27667e-257
651.301,3.11908e-262
653.768,1.63241e-267
656.235,7.56428e-273
658.702,3.10344e-278
661.169,1.12734e-283
663.636,3.6258e-289
666.103,1.0325e-294
668.57,2.60321e-300
671.037,5.81122e-306
673.504,1.14858e-311
675.971,2.00998e-317
678.438,3e-323
680.905,0.0
683.372,0.0
685.839,0.0
688.306,0.0
690.773,0.0
693.24,0.0
695.707,0.0
698.174,0.0
700.641,0.0
703.108,0.0
705.575,0.0
708.042,0.0
710.509,0.0
712.976,0.0
715.443,0.0
717.91,0.0
720.377,0.0
722.844,0.0
725.311,0.0
725.456,0.0