File: CRYSTAL-IR-RAMAN/log.PBE0446657-IR.csv
E(cm-1),I
0.01,6.72073e-237
2.60421,1.12932e-231
5.19842,1.65867e-226
7.79263,2.12936e-221
10.3868,2.38937e-216
12.981,2.34348e-211
15.5753,2.00902e-206
18.1695,1.5054e-201
20.7637,9.8597e-197
23.3579,5.64443e-192
25.9521,2.82437e-187
28.5463,1.23529e-182
31.1405,4.72235e-178
33.7347,1.57795e-173
36.3289,4.60865e-169
38.9231,1.17652e-164
41.5174,2.62523e-160
44.1116,5.12013e-156
46.7058,8.7285e-152
49.3,1.3006e-147
51.8942,1.69391e-143
54.4884,1.92834e-139
57.0826,1.91876e-135
59.6768,1.66879e-131
62.271,1.26861e-127
64.8652,8.42944e-124
67.4594,4.8957e-120
70.0537,2.48528e-116
72.6479,1.10276e-112
75.2421,4.2769e-109
77.8363,1.44985e-105
80.4305,4.29598e-102
83.0247,1.11262e-98
85.6189,2.51868e-95
88.2131,4.98363e-92
90.8073,8.61913e-89
93.4015,1.30294e-85
95.9957,1.7216e-82
98.59,1.98831e-79
101.184,2.00715e-76
103.778,1.771e-73
106.373,1.36585e-70
108.967,9.20734e-68
111.561,5.42511e-65
114.155,2.79401e-62
116.749,1.25774e-59
119.344,4.9488e-57
121.938,1.70197e-54
124.532,5.11623e-52
127.126,1.34429e-49
129.72,3.0873e-47
132.315,6.19742e-45
134.909,1.08739e-42
137.503,1.66766e-40
140.097,2.23549e-38
142.692,2.61929e-36
145.286,2.68249e-34
147.88,2.40125e-32
150.474,1.8788e-30
153.068,1.2849e-28
155.663,7.68074e-27
158.257,4.01311e-25
160.851,1.83275e-23
163.445,7.31595e-22
166.039,2.5526e-20
168.634,7.78465e-19
171.228,2.0751e-17
173.822,4.83488e-16
176.416,9.84637e-15
179.01,1.75271e-13
181.605,2.72703e-12
184.199,3.70864e-11
186.793,4.40843e-10
189.387,4.58034e-09
191.981,4.15964e-08
194.576,3.30186e-07
197.17,2.2909e-06
199.764,1.38931e-05
202.358,7.36435e-05
204.953,0.000341205
207.547,0.00138179
210.141,0.00489117
212.735,0.0151331
215.329,0.0409249
217.924,0.0967369
220.518,0.199867
223.112,0.36094
225.706,0.569736
228.3,0.786062
230.895,0.947948
233.489,0.99921
236.083,0.920606
238.677,0.741371
241.271,0.521845
243.866,0.321065
246.46,0.172659
249.054,0.0811575
251.648,0.0333437
254.243,0.0119741
256.837,0.00375852
259.431,0.00103118
262.025,0.000247286
264.619,5.18331e-05
267.214,9.49641e-06
269.808,1.52075e-06
272.402,2.12862e-07
274.996,2.60427e-08
277.59,2.78494e-09
280.185,2.60311e-10
282.779,2.12673e-11
285.373,1.51872e-12
287.967,9.47955e-14
290.561,5.17181e-15
293.156,2.46745e-16
295.75,1.35687e-17
298.344,8.04438e-17
300.938,1.70386e-15
303.532,3.16914e-14
306.127,5.15225e-13
308.721,7.32144e-12
311.315,9.0937e-11
313.909,9.87255e-10
316.504,9.36834e-09
319.098,7.77036e-08
321.692,5.63331e-07
324.286,3.5697e-06
326.88,1.97717e-05
329.475,9.57194e-05
332.069,0.000405043
334.663,0.00149812
337.257,0.00484326
339.851,0.0136859
342.446,0.0338028
345.04,0.0729755
347.634,0.137704
350.228,0.227122
352.822,0.32743
355.417,0.412593
358.011,0.454432
360.605,0.437483
363.199,0.368128
365.794,0.270757
368.388,0.174063
370.982,0.0978086
373.576,0.0480389
376.17,0.020623
378.765,0.00773854
381.359,0.0025383
383.953,0.000729022
386.547,0.000190611
389.141,8.25726e-05
391.736,0.000199378
394.33,0.00075484
396.924,0.0025889
399.518,0.0077731
402.112,0.0204008
404.707,0.0468001
407.301,0.0938404
409.895,0.164467
412.489,0.251948
415.084,0.337356
417.678,0.394831
420.272,0.403904
422.866,0.361151
425.46,0.282258
428.055,0.192817
430.649,0.115131
433.243,0.0600872
435.837,0.0274105
438.431,0.0109294
441.026,0.00380908
443.62,0.00116035
446.214,0.000308959
448.808,7.1905e-05
451.402,1.46272e-05
453.997,2.60081e-06
456.591,4.04204e-07
459.185,5.49082e-08
461.779,6.51956e-09
464.373,6.76619e-10
466.968,6.13782e-11
469.562,4.86664e-12
472.156,3.37279e-13
474.75,2.04312e-14
477.345,1.08179e-15
479.939,5.00651e-17
482.533,2.02523e-18
485.127,7.16071e-20
487.721,2.21301e-21
490.316,5.978e-23
492.91,1.41147e-24
495.504,2.91296e-26
498.098,5.2546e-28
500.692,8.28496e-30
503.287,1.14179e-31
505.881,1.37539e-33
508.475,1.44814e-35
511.069,1.33272e-37
513.663,1.07204e-39
516.258,7.53757e-42
518.852,4.63228e-44
521.446,2.4883e-46
524.04,1.1683e-48
526.635,4.79459e-51
529.229,1.71986e-53
531.823,5.39237e-56
534.417,1.47778e-58
537.011,3.53986e-61
539.606,7.4115e-64
542.2,1.35635e-66
544.794,2.1696e-69
547.388,3.03343e-72
549.982,3.70709e-75
552.577,3.95983e-78
555.171,3.69713e-81
557.765,3.01715e-84
560.359,2.15216e-87
562.953,1.34183e-90
565.548,7.31245e-94
568.142,3.48316e-97
570.736,1.45021e-100
573.33,5.27752e-104
575.924,1.67871e-107
578.519,4.66729e-111
581.113,1.13423e-114
583.707,2.40923e-118
586.301,4.47303e-122
588.896,7.25889e-126
591.49,1.02963e-129
594.084,1.27656e-133
596.678,1.38338e-137
599.272,1.31036e-141
601.867,1.08488e-145
604.461,7.85086e-150
607.055,4.9659e-154
609.649,2.74551e-158
612.243,1.32676e-162
614.838,5.60413e-167
617.432,2.06903e-171
620.026,6.67684e-176
622.62,1.8833e-180
625.214,4.64315e-185
627.809,1.00058e-189
630.403,1.88466e-194
632.997,3.10285e-199
635.591,4.46511e-204
638.186,5.61628e-209
640.78,6.17461e-214
643.374,5.93356e-219
645.968,4.98386e-224
648.562,3.65898e-229
651.157,2.34801e-234
653.751,1.317e-239
656.345,6.45674e-245
658.939,2.76686e-250
661.533,1.03635e-255
664.128,3.39287e-261
666.722,9.70901e-267
669.316,2.42844e-272
671.91,5.30913e-278
674.504,1.01453e-283
677.099,1.69454e-289
679.693,2.4739e-295
682.287,3.15687e-301
684.881,3.52108e-307
687.475,3.43274e-313
690.07,2.92517e-319
692.664,0.0
695.258,0.0
697.852,0.0
700.447,0.0
703.041,0.0
705.635,0.0
708.229,0.0
710.823,0.0
713.418,0.0
716.012,0.0
718.606,0.0
721.2,0.0
723.794,0.0
726.389,0.0
728.983,0.0
731.577,0.0
734.171,0.0
736.765,0.0
739.36,0.0
741.954,0.0
744.548,0.0
747.142,0.0
749.737,0.0
752.331,0.0
754.925,0.0
757.519,0.0
760.113,0.0
762.708,0.0
762.86,0.0