File: CRYSTAL-IR-RAMAN/log.PBE0446657-RAMAN.csv
E(cm-1),I
0.01,1.57372e-76
2.60421,1.37729e-73
5.19842,1.05357e-70
7.79263,7.04447e-68
10.3868,4.11697e-65
12.981,2.10306e-62
15.5753,9.39009e-60
18.1695,3.66465e-57
20.7637,1.25009e-54
23.3579,3.72729e-52
25.9521,9.71382e-50
28.5463,2.21275e-47
31.1405,4.40573e-45
33.7347,7.66742e-43
36.3289,1.16634e-40
38.9231,1.55076e-38
41.5174,1.80223e-36
44.1116,1.83071e-34
46.7058,1.62545e-32
49.3,1.26146e-30
51.8942,8.55688e-29
54.4884,5.07345e-27
57.0826,2.62928e-25
59.6768,1.191e-23
62.271,4.71558e-22
64.8652,1.63193e-20
67.4594,4.93643e-19
70.0537,1.30518e-17
72.6479,3.01627e-16
75.2421,6.09277e-15
77.8363,1.07573e-13
80.4305,1.66012e-12
83.0247,2.23933e-11
85.6189,2.64023e-10
88.2131,2.72088e-09
90.8073,2.45089e-08
93.4015,1.92966e-07
95.9957,1.32795e-06
98.59,7.98785e-06
101.184,4.19973e-05
103.778,0.000193
106.373,0.000775243
108.967,0.00272185
111.561,0.00835283
114.155,0.0224052
116.749,0.05253
119.344,0.107649
121.938,0.192824
124.532,0.301893
127.126,0.413134
129.72,0.494167
132.315,0.516655
134.909,0.472142
137.503,0.377128
140.097,0.2633
142.692,0.160678
145.286,0.085705
147.88,0.0399578
150.474,0.0162833
153.068,0.00580007
155.663,0.00180624
158.257,0.000493541
160.851,0.000124865
163.445,5.02244e-05
166.039,7.7994e-05
168.634,0.000183232
171.228,0.000395889
173.822,0.000750153
176.416,0.00124269
179.01,0.00179941
181.605,0.0022774
184.199,0.00251938
186.793,0.00243609
189.387,0.00205891
191.981,0.00152099
194.576,0.000982106
197.17,0.000554289
199.764,0.000273438
202.358,0.000117903
204.953,4.44363e-05
207.547,1.46384e-05
210.141,4.21497e-06
212.735,1.06082e-06
215.329,2.33362e-07
217.924,4.4871e-08
220.518,7.54128e-09
223.112,1.10782e-09
225.706,1.42245e-10
228.3,1.59644e-11
230.895,1.56607e-12
233.489,1.3428e-13
236.083,1.00638e-14
238.677,6.59253e-16
241.271,3.77475e-17
243.866,1.88916e-18
246.46,8.2641e-20
249.054,3.15985e-21
251.648,1.05604e-22
254.243,3.0849e-24
256.837,7.87673e-26
259.431,1.7579e-27
262.025,3.42917e-29
264.619,5.84692e-31
267.214,8.71385e-33
269.808,1.13511e-34
272.402,1.29244e-36
274.996,1.28625e-38
277.59,1.11889e-40
280.185,8.50736e-43
282.779,5.65387e-45
285.373,3.28429e-47
287.967,1.66756e-49
290.561,7.40058e-52
293.156,2.87075e-54
295.75,9.74021e-57
298.344,2.62614e-57
300.938,8.79855e-55
303.532,2.60523e-52
306.127,6.74257e-50
308.721,1.52528e-47
311.315,3.01591e-45
313.909,5.21233e-43
316.504,7.8739e-41
319.098,1.03966e-38
321.692,1.19989e-36
324.286,1.21041e-34
326.88,1.06726e-32
329.475,8.22527e-31
332.069,5.54085e-29
334.663,3.26247e-27
337.257,1.67904e-25
339.851,7.55304e-24
342.446,2.96979e-22
345.04,1.02065e-20
347.634,3.06598e-19
350.228,8.05021e-18
352.822,1.84753e-16
355.417,3.70611e-15
358.011,6.49816e-14
360.605,9.95881e-13
363.199,1.33404e-11
365.794,1.56198e-10
368.388,1.59855e-09
370.982,1.42995e-08
373.576,1.11805e-07
376.17,7.64093e-07
378.765,4.56431e-06
381.359,2.38314e-05
383.953,0.00010876
386.547,0.000433842
389.141,0.00151265
391.736,0.00460991
394.33,0.0122797
396.924,0.0285911
399.518,0.0581859
402.112,0.103502
404.707,0.160925
407.301,0.218698
409.895,0.259783
412.489,0.269724
415.084,0.244779
417.678,0.194166
420.272,0.134622
422.866,0.081584
425.46,0.0432153
428.055,0.0200085
430.649,0.00809724
433.243,0.0028642
435.837,0.000885555
438.431,0.000239316
441.026,5.65291e-05
443.62,1.16713e-05
446.214,2.10624e-06
448.808,3.32232e-07
451.402,4.58059e-08
453.997,5.52008e-09
456.591,5.81452e-10
459.185,5.35336e-11
461.779,4.30809e-12
464.373,3.03033e-13
466.968,1.86786e-14
469.562,1.95807e-15
472.156,1.6837e-14
474.75,2.57576e-13
477.345,3.45503e-12
479.939,4.05283e-11
482.533,4.15824e-10
485.127,3.73274e-09
487.721,2.9328e-08
490.316,2.01795e-07
492.91,1.21686e-06
495.504,6.43753e-06
498.098,2.99191e-05
500.692,0.000122385
503.287,0.000441663
505.881,0.00141032
508.475,0.00399877
511.069,0.0101065
513.663,0.022857
516.258,0.0464134
518.852,0.0848102
521.446,0.13955
524.04,0.206554
526.635,0.274321
529.229,0.325746
531.823,0.344503
534.417,0.323256
537.011,0.268205
539.606,0.196212
542.2,0.126283
544.794,0.0713789
547.388,0.0353862
549.982,0.0153717
552.577,0.00584687
555.171,0.00194635
557.765,0.000566834
560.359,0.000144382
562.953,3.21599e-05
565.548,6.26326e-06
568.142,1.06642e-06
570.736,1.58736e-07
573.33,2.06545e-08
575.924,2.34927e-09
578.519,2.33579e-10
581.113,2.04114e-11
583.707,3.32973e-12
586.301,2.49344e-11
588.896,3.0149e-10
591.49,3.19934e-09
594.084,2.96758e-08
596.678,2.40596e-07
599.272,1.70498e-06
601.867,1.05607e-05
604.461,5.7176e-05
607.055,0.000270569
609.649,0.00111915
612.243,0.00404615
614.838,0.0127862
617.432,0.0353169
620.026,0.085265
622.62,0.17993
625.214,0.331879
627.809,0.535059
630.403,0.753995
632.997,0.928708
635.591,0.99985
638.186,0.940882
640.78,0.773891
643.374,0.556377
645.968,0.349626
648.562,0.192036
651.157,0.0921946
653.751,0.0386878
656.345,0.0141901
658.939,0.00454929
661.533,0.00127481
664.128,0.000312243
666.722,6.68472e-05
669.316,1.25089e-05
671.91,2.04597e-06
674.504,2.92499e-07
677.099,3.65506e-08
679.693,3.99217e-09
682.287,3.81126e-10
684.881,3.18033e-11
687.475,2.31964e-12
690.07,1.47881e-13
692.664,8.24045e-15
695.258,4.01359e-16
697.852,1.70868e-17
700.447,6.35816e-19
703.041,2.06799e-20
705.635,5.87907e-22
708.229,1.46088e-23
710.823,3.17296e-25
713.418,6.02364e-27
716.012,9.99535e-29
718.606,1.44971e-30
721.2,1.83785e-32
723.794,2.0365e-34
726.389,1.97243e-36
728.983,1.6698e-38
731.577,1.23558e-40
734.171,7.99141e-43
736.765,4.51772e-45
739.36,2.23234e-47
741.954,9.64154e-50
744.548,3.63979e-52
747.142,1.20102e-54
749.737,3.46395e-57
752.331,8.73244e-60
754.925,1.92418e-62
757.519,3.70594e-65
760.113,6.23873e-68
762.708,9.17993e-71
762.86,6.22896e-71