File: CRYSTAL-IR-RAMAN/log.PBE446328-RAMAN.csv
E(cm-1),I
0.01,3.32963e-54
2.47701,7.38268e-52
4.94402,1.44934e-49
7.41103,2.51919e-47
9.87804,3.87693e-45
12.3451,5.28266e-43
14.8121,6.37313e-41
17.2791,6.80754e-39
19.7461,6.43819e-37
22.2131,5.39105e-35
24.6801,3.99687e-33
27.1471,2.62363e-31
29.6141,1.52483e-29
32.0811,7.84652e-28
34.5482,3.57494e-26
37.0152,1.44211e-24
39.4822,5.15065e-23
41.9492,1.62878e-21
44.4162,4.56038e-20
46.8832,1.13051e-18
49.3502,2.48134e-17
51.8172,4.82206e-16
54.2842,8.29691e-15
56.7513,1.26397e-13
59.2183,1.70487e-12
61.6853,2.03603e-11
64.1523,2.15285e-10
66.6193,2.01549e-09
69.0863,1.67063e-08
71.5533,1.22608e-07
74.0203,7.967e-07
76.4873,4.58359e-06
78.9544,2.33482e-05
81.4214,0.000105302
83.8884,0.000420492
86.3554,0.00148667
88.8224,0.00465381
91.2894,0.0128985
93.7564,0.0316522
96.2234,0.0687712
98.6904,0.132296
101.157,0.225331
103.624,0.339808
106.091,0.453713
108.558,0.536372
111.026,0.561419
113.493,0.520289
115.96,0.426912
118.427,0.310148
120.894,0.199497
123.361,0.113616
125.828,0.05729
128.295,0.0255773
130.762,0.0101104
133.229,0.00353848
135.696,0.00109648
138.163,0.000300834
140.63,7.30876e-05
143.097,1.5772e-05
145.564,3.24776e-06
148.031,1.55473e-06
150.498,3.90772e-06
152.965,1.23935e-05
155.432,3.54301e-05
157.899,8.97444e-05
160.366,0.000201276
162.833,0.000399681
165.3,0.000702704
167.767,0.00109387
170.234,0.00150764
172.701,0.00183978
175.168,0.00198779
177.635,0.00190156
180.102,0.0016106
182.569,0.00120781
185.036,0.000801954
187.503,0.00047145
189.97,0.000245391
192.437,0.000113088
194.904,4.61437e-05
197.371,1.66703e-05
199.838,5.33227e-06
202.305,1.51014e-06
204.772,3.78668e-07
207.239,8.40689e-08
209.706,1.65253e-08
212.173,2.87607e-09
214.64,4.43187e-10
217.107,6.04658e-11
219.574,7.30414e-12
222.041,7.81206e-13
224.508,7.39772e-14
226.975,6.2025e-15
229.442,4.60439e-16
231.909,3.02631e-17
234.376,1.76113e-18
236.843,9.07416e-20
239.31,4.13959e-21
241.777,1.67203e-22
244.244,5.97955e-24
246.711,1.89334e-25
249.178,5.30793e-27
251.645,1.31752e-28
254.112,2.89553e-30
256.579,5.63423e-32
259.046,9.70681e-34
261.513,1.48066e-35
263.98,1.99973e-37
266.447,2.39124e-39
268.914,2.53169e-41
271.381,2.3732e-43
273.848,1.96969e-45
276.315,1.61556e-47
278.782,2.71631e-46
281.249,3.88251e-44
283.716,4.91511e-42
286.183,5.50922e-40
288.65,5.46744e-38
291.117,4.80412e-36
293.584,3.73749e-34
296.051,2.57444e-32
298.518,1.57008e-30
300.985,8.47808e-29
303.452,4.05331e-27
305.919,1.71576e-25
308.386,6.43047e-24
310.853,2.13385e-22
313.32,6.26934e-21
315.787,1.63086e-19
318.254,3.75618e-18
320.721,7.65972e-17
323.188,1.38298e-15
325.655,2.21083e-14
328.122,3.12919e-13
330.589,3.92144e-12
333.057,4.35105e-11
335.524,4.27444e-10
337.991,3.71793e-09
340.458,2.86325e-08
342.925,1.95234e-07
345.392,1.17865e-06
347.859,6.30019e-06
350.326,2.98166e-05
352.793,0.000124939
355.26,0.000463527
357.727,0.00152261
360.194,0.00442831
362.661,0.0114031
365.128,0.0259984
367.595,0.0524814
370.062,0.0937996
372.529,0.148434
374.996,0.20797
377.463,0.257992
379.93,0.283365
382.397,0.275565
384.864,0.237268
387.331,0.180879
389.798,0.122089
392.265,0.0729624
394.732,0.0386063
397.199,0.0180865
399.666,0.00750217
402.133,0.00275522
404.6,0.000895904
407.067,0.000257931
409.534,6.57478e-05
412.001,1.48387e-05
414.468,2.96515e-06
416.935,5.24608e-07
419.402,8.21786e-08
421.869,1.13977e-08
424.336,1.39964e-09
426.803,1.52177e-10
429.27,1.46494e-11
431.737,1.24959e-12
434.204,1.09429e-13
436.671,2.14465e-13
439.138,2.52396e-12
441.605,2.70868e-11
444.072,2.57414e-10
446.539,2.16593e-09
449.006,1.6136e-08
451.473,1.06435e-07
453.94,6.21599e-07
456.407,3.21425e-06
458.874,1.47163e-05
461.341,5.96594e-05
463.808,0.000214163
466.275,0.000680842
468.742,0.00191725
471.209,0.00478451
473.676,0.0105901
476.143,0.0208267
478.61,0.0365133
481.077,0.0574321
483.544,0.0819864
486.011,0.108281
488.478,0.135965
490.945,0.16705
493.412,0.204
495.879,0.245602
498.346,0.283974
500.813,0.306334
503.28,0.301566
505.747,0.267189
508.214,0.211402
510.681,0.148745
513.148,0.0928704
515.615,0.0513972
518.082,0.025199
520.549,0.0109418
523.016,0.00420719
525.483,0.0014324
527.95,0.000431805
530.417,0.000115254
532.884,2.72373e-05
535.351,5.69917e-06
537.818,1.05583e-06
540.285,1.73188e-07
542.752,2.51522e-08
545.219,3.23422e-09
547.686,3.68223e-10
550.153,3.72581e-11
552.621,5.26181e-12
555.088,2.40364e-11
557.555,2.56767e-10
560.022,2.45494e-09
562.489,2.0783e-08
564.956,1.55781e-07
567.423,1.03384e-06
569.89,6.0748e-06
572.357,3.16043e-05
574.824,0.000145578
577.291,0.000593721
579.758,0.00214391
582.225,0.00685434
584.692,0.0194027
587.159,0.0486289
589.626,0.10791
592.093,0.212016
594.56,0.368816
597.027,0.568052
599.494,0.774645
601.961,0.935306
604.428,0.999864
606.895,0.946379
609.362,0.793095
611.829,0.588467
614.296,0.386594
616.763,0.224866
619.23,0.115806
621.697,0.0528047
624.164,0.0213183
626.631,0.00762021
629.098,0.00241167
631.565,0.000675782
634.032,0.000167661
636.499,3.68292e-05
638.966,7.16291e-06
641.433,1.23346e-06
643.9,1.88059e-07
646.367,2.53864e-08
648.834,3.03419e-09
651.301,3.21087e-10
653.768,3.00842e-11
656.235,2.49569e-12
658.702,1.83307e-13
661.169,1.19208e-14
663.636,6.86383e-16
666.103,3.49917e-17
668.57,1.57943e-18
671.037,6.31204e-20
673.504,2.23346e-21
675.971,6.99715e-23
678.438,1.94089e-24
680.905,4.7667e-26
683.372,1.0365e-27
685.839,1.99554e-29
688.306,3.40162e-31
690.773,5.13391e-33
693.24,6.86036e-35
695.707,8.11675e-37
698.174,8.50264e-39
700.641,7.88609e-41
703.108,6.47599e-43
705.575,4.70855e-45
708.042,3.03113e-47
710.509,1.72766e-49
712.976,8.71862e-52
715.443,3.8956e-54
717.91,1.54112e-56
720.377,5.39805e-59
722.844,1.67407e-61
725.311,4.59668e-64
725.4564,3.23692e-64