File: CRYSTAL-IR-RAMAN/log.PBE446328-IR.csv
E(cm-1),I
0.01,6.18221e-182
2.47701,1.38604e-177
4.94402,2.75135e-173
7.41103,4.83562e-169
9.87804,7.5248e-165
12.3451,1.03675e-160
14.8121,1.2647e-156
17.2791,1.36597e-152
19.7461,1.30626e-148
22.2131,1.106e-144
24.6801,8.29115e-141
27.1471,5.50316e-137
29.6141,3.23404e-133
32.0811,1.68274e-129
34.5482,7.75216e-126
37.0152,3.16203e-122
39.4822,1.14195e-118
41.9492,3.65142e-115
44.4162,1.03375e-111
46.8832,2.59121e-108
49.3502,5.7508e-105
51.8172,1.13003e-101
54.2842,1.96602e-98
56.7513,3.02846e-95
59.2183,4.13041e-92
61.6853,4.9877e-89
64.1523,5.33267e-86
66.6193,5.04806e-83
69.0863,4.23098e-80
71.5533,3.13975e-77
74.0203,2.06293e-74
76.4873,1.20008e-71
78.9544,6.18119e-69
81.4214,2.81884e-66
83.8884,1.13817e-63
86.3554,4.06891e-61
88.8224,1.28791e-58
91.2894,3.60936e-56
93.7564,8.95594e-54
96.2234,1.96756e-51
98.6904,3.82721e-49
101.157,6.59132e-47
103.624,1.00508e-44
106.091,1.35694e-42
108.558,1.62204e-40
111.026,1.71671e-38
113.493,1.60868e-36
115.96,1.33468e-34
118.427,9.80446e-33
120.894,6.37683e-31
123.361,3.67217e-29
125.828,1.87231e-27
128.295,8.45217e-26
130.762,3.37828e-24
133.229,1.19553e-22
135.696,3.74593e-21
138.163,1.03919e-19
140.63,2.55252e-18
143.097,5.55109e-17
145.564,1.06887e-15
148.031,1.82224e-14
150.498,2.75058e-13
152.965,3.67604e-12
155.432,4.34982e-11
157.899,4.55721e-10
160.366,4.22731e-09
162.833,3.47188e-08
165.3,2.52465e-07
167.767,1.62546e-06
170.234,9.26585e-06
172.701,4.67662e-05
175.168,0.000208985
177.635,0.000826864
180.102,0.00289661
182.569,0.00898425
185.036,0.0246723
187.503,0.0599895
189.97,0.129145
192.437,0.246158
194.904,0.415422
197.371,0.620726
199.838,0.821196
202.305,0.961901
204.772,0.997586
207.239,0.916024
209.706,0.744731
212.173,0.536079
214.64,0.34166
217.107,0.192795
219.574,0.0963242
222.041,0.0426099
224.508,0.0166887
226.975,0.00578721
229.442,0.00177686
231.909,0.00048303
234.376,0.00011626
236.843,2.47756e-05
239.31,4.67471e-06
241.777,7.80946e-07
244.244,1.15511e-07
246.711,1.51274e-08
249.178,1.75404e-09
251.645,1.80074e-10
254.112,1.63681e-11
256.579,1.31731e-12
259.046,9.4128e-14
261.513,1.05139e-14
263.98,7.14233e-14
266.447,9.74531e-13
268.914,1.18274e-11
271.381,1.27094e-10
273.848,1.20921e-09
276.315,1.01862e-08
278.782,7.59727e-08
281.249,5.01696e-07
283.716,2.93332e-06
286.183,1.5185e-05
288.65,6.95999e-05
291.117,0.000282447
293.584,0.00101485
296.051,0.00322853
298.518,0.00909374
300.985,0.0226786
303.452,0.0500758
305.919,0.0978983
308.386,0.169457
310.853,0.259704
313.32,0.3524
315.787,0.423379
318.254,0.450359
320.721,0.424155
323.188,0.353693
325.655,0.261135
328.122,0.170703
330.589,0.098799
333.057,0.0506291
335.524,0.0229713
337.991,0.00922796
340.458,0.00328219
342.925,0.00103361
345.392,0.000288195
347.859,7.11465e-05
350.326,1.55509e-05
352.793,3.00951e-06
355.26,5.15673e-07
357.727,7.82644e-08
360.194,1.08396e-08
362.661,4.24865e-09
365.128,2.41644e-08
367.595,1.70534e-07
370.062,1.07126e-06
372.529,5.95857e-06
374.996,2.93446e-05
377.463,0.000127953
379.93,0.000493979
382.397,0.00168851
384.864,0.00511016
387.331,0.0136931
389.798,0.0324867
392.265,0.0682412
394.732,0.126918
397.199,0.208996
399.666,0.30471
402.133,0.393345
404.6,0.449569
407.067,0.454941
409.534,0.407616
412.001,0.323357
414.468,0.227118
416.935,0.141239
419.402,0.0777674
421.869,0.0379119
424.336,0.016364
426.803,0.00625374
429.27,0.00211605
431.737,0.000633943
434.204,0.000168155
436.671,3.94917e-05
439.138,8.2118e-06
441.605,1.51185e-06
444.072,2.46441e-07
446.539,3.55676e-08
449.006,4.545e-09
451.473,5.14219e-10
453.94,5.15109e-11
456.407,4.56864e-12
458.874,3.58766e-13
461.341,2.49443e-14
463.808,1.53557e-15
466.275,8.36954e-17
468.742,4.03898e-18
471.209,1.72575e-19
473.676,6.5286e-21
476.143,2.18675e-22
478.61,6.48507e-24
481.077,1.70281e-25
483.544,3.95872e-27
486.011,8.14853e-29
488.478,1.48505e-30
490.945,2.39628e-32
493.412,3.42351e-34
495.879,4.33055e-36
498.346,4.85009e-38
500.813,4.80942e-40
503.28,4.22253e-42
505.747,3.28238e-44
508.214,2.25913e-46
510.681,1.37667e-48
513.148,7.42772e-51
515.615,3.54827e-53
518.082,1.50077e-55
520.549,5.62018e-58
523.016,1.86346e-60
525.483,5.47052e-63
527.95,1.42191e-65
530.417,3.2723e-68
532.884,6.6676e-71
535.351,1.20288e-73
537.818,1.92138e-76
540.285,2.71731e-79
542.752,3.40252e-82
545.219,3.77224e-85
547.686,3.70284e-88
550.153,3.21815e-91
552.621,2.47637e-94
555.088,1.68717e-97
557.555,1.01775e-100
560.022,5.43573e-104
562.489,2.57047e-107
564.956,1.07622e-110
567.423,3.9896e-114
569.89,1.30946e-117
572.357,3.80532e-121
574.824,9.79101e-125
577.291,2.23049e-128
579.758,4.49893e-132
582.225,8.03441e-136
584.692,1.27039e-139
587.159,1.7785e-143
589.626,2.20449e-147
592.093,2.41935e-151
594.56,2.35086e-155
597.027,2.02251e-159
599.494,1.5406e-163
601.961,1.03903e-167
604.428,6.20441e-172
606.895,3.28027e-176
609.362,1.53552e-180
611.829,6.36412e-185
614.296,2.33538e-189
616.763,7.58773e-194
619.23,2.18275e-198
621.697,5.55945e-203
624.164,1.25371e-207
626.631,2.50321e-212
629.098,4.42522e-217
631.565,6.92641e-222
634.032,9.59883e-227
636.499,1.17778e-231
638.966,1.27952e-236
641.433,1.23074e-241
643.9,1.04815e-246
646.367,7.90343e-252
648.834,5.27648e-257
651.301,3.11896e-262
653.768,1.63234e-267
656.235,7.56395e-273
658.702,3.1033e-278
661.169,1.12729e-283
663.636,3.62561e-289
666.103,1.03244e-294
668.57,2.60307e-300
671.037,5.81088e-306
673.504,1.14851e-311
675.971,2.00985e-317
678.438,3e-323
680.905,0.0
683.372,0.0
685.839,0.0
688.306,0.0
690.773,0.0
693.24,0.0
695.707,0.0
698.174,0.0
700.641,0.0
703.108,0.0
705.575,0.0
708.042,0.0
710.509,0.0
712.976,0.0
715.443,0.0
717.91,0.0
720.377,0.0
722.844,0.0
725.311,0.0
725.4564,0.0