File: CRYSTAL-IR-RAMAN/MgO.log-IR.csv
E(cm-1),I
0.01,0.0
1.67734,0.0
3.34469,0.0
5.01203,0.0
6.67937,0.0
8.34672,0.0
10.0141,0.0
11.6814,0.0
13.3487,0.0
15.0161,0.0
16.6834,0.0
18.3508,0.0
20.0181,0.0
21.6855,0.0
23.3528,0.0
25.0202,0.0
26.6875,0.0
28.3548,0.0
30.0222,0.0
31.6895,0.0
33.3569,0.0
35.0242,0.0
36.6916,0.0
38.3589,0.0
40.0262,0.0
41.6936,0.0
43.3609,0.0
45.0283,0.0
46.6956,0.0
48.363,0.0
50.0303,0.0
51.6976,0.0
53.365,0.0
55.0323,0.0
56.6997,0.0
58.367,0.0
60.0344,0.0
61.7017,0.0
63.369,0.0
65.0364,0.0
66.7037,0.0
68.3711,0.0
70.0384,0.0
71.7058,0.0
73.3731,0.0
75.0405,0.0
76.7078,0.0
78.3751,0.0
80.0425,0.0
81.7098,0.0
83.3772,0.0
85.0445,0.0
86.7119,0.0
88.3792,0.0
90.0465,0.0
91.7139,0.0
93.3812,0.0
95.0486,0.0
96.7159,0.0
98.3833,0.0
100.051,0.0
101.718,0.0
103.385,0.0
105.053,0.0
106.72,0.0
108.387,0.0
110.055,0.0
111.722,0.0
113.389,0.0
115.057,0.0
116.724,0.0
118.391,0.0
120.059,0.0
121.726,0.0
123.393,0.0
125.061,0.0
126.728,0.0
128.395,0.0
130.063,0.0
131.73,0.0
133.397,0.0
135.065,0.0
136.732,1.067e-321
138.4,9.00101e-318
140.067,7.16477e-314
141.734,5.39469e-310
143.402,3.84223e-306
145.069,2.58853e-302
146.736,1.64959e-298
148.404,9.9438e-295
150.071,5.66997e-291
151.738,3.05818e-287
153.406,1.56026e-283
155.073,7.52982e-280
156.74,3.43736e-276
158.408,1.48429e-272
160.075,6.06268e-269
161.742,2.34242e-265
163.41,8.56084e-262
165.077,2.95952e-258
166.744,9.67786e-255
168.412,2.99358e-251
170.079,8.759e-248
171.746,2.42422e-244
173.414,6.3466e-241
175.081,1.57168e-237
176.748,3.68162e-234
178.416,8.1577e-231
180.083,1.70982e-227
181.75,3.38988e-224
183.418,6.35728e-221
185.085,1.12775e-217
186.752,1.89236e-214
188.42,3.00366e-211
190.087,4.50972e-208
191.754,6.40475e-205
193.422,8.60413e-202
195.089,1.09336e-198
196.757,1.31424e-195
198.424,1.49431e-192
200.091,1.60715e-189
201.759,1.63503e-186
203.426,1.57343e-183
205.093,1.43227e-180
206.761,1.23325e-177
208.428,1.00446e-174
210.095,7.73869e-172
211.763,5.63968e-169
213.43,3.88772e-166
215.097,2.53506e-163
216.765,1.56363e-160
218.432,9.1229e-158
220.099,5.03483e-155
221.767,2.62839e-152
223.434,1.29792e-149
225.101,6.06259e-147
226.769,2.67868e-144
228.436,1.11954e-141
230.103,4.42596e-139
231.771,1.65512e-136
233.438,5.85471e-134
235.105,1.95899e-131
236.773,6.20032e-129
238.44,1.8563e-126
240.107,5.25697e-124
241.775,1.40824e-121
243.442,3.56836e-119
245.109,8.55292e-117
246.777,1.93916e-114
248.444,4.15877e-112
250.112,8.43663e-110
251.779,1.61893e-107
253.446,2.93858e-105
255.114,5.04546e-103
256.781,8.1944e-101
258.448,1.25889e-98
260.116,1.8294e-96
261.783,2.51468e-94
263.45,3.26973e-92
265.118,4.02154e-90
266.785,4.67871e-88
268.452,5.14889e-86
270.12,5.35986e-84
271.787,5.27771e-82
273.454,4.91577e-80
275.122,4.33102e-78
276.789,3.60945e-76
278.456,2.84542e-74
280.124,2.1218e-72
281.791,1.49663e-70
283.458,9.98566e-69
285.126,6.30221e-67
286.793,3.76238e-65
288.46,2.12463e-63
290.128,1.1349e-61
291.795,5.73439e-60
293.462,2.74074e-58
295.13,1.23909e-56
296.797,5.29893e-55
298.464,2.14352e-53
300.132,8.20201e-52
301.799,2.9687e-50
303.466,1.0164e-48
305.134,3.29167e-47
306.801,1.00837e-45
308.469,2.92198e-44
310.136,8.00917e-43
311.803,2.07659e-41
313.471,5.09292e-40
315.138,1.1815e-38
316.805,2.59273e-37
318.473,5.38186e-36
320.14,1.05672e-34
321.807,1.96264e-33
323.475,3.44805e-32
325.142,5.73008e-31
326.809,9.00741e-30
328.477,1.33934e-28
330.144,1.88381e-27
331.811,2.50632e-26
333.479,3.15418e-25
335.146,3.75484e-24
336.813,4.22813e-23
338.481,4.50358e-22
340.148,4.53755e-21
341.815,4.32451e-20
343.483,3.89857e-19
345.15,3.32451e-18
346.817,2.68165e-17
348.485,2.04611e-16
350.152,1.47676e-15
351.819,1.00819e-14
353.487,6.51073e-14
355.154,3.97712e-13
356.821,2.29806e-12
358.489,1.25605e-11
360.156,6.49388e-11
361.824,3.17582e-10
363.491,1.46913e-09
365.158,6.4286e-09
366.826,2.66088e-08
368.493,1.04181e-07
370.16,3.85837e-07
371.828,1.35168e-06
373.495,4.47914e-06
375.162,1.40401e-05
376.83,4.1629e-05
378.497,0.000116755
380.164,0.000309749
381.832,0.000777313
383.499,0.00184516
385.166,0.00414312
386.834,0.00879979
388.501,0.0176795
390.168,0.0335986
391.836,0.0603983
393.503,0.102703
395.17,0.165193
396.838,0.251335
398.505,0.361717
400.172,0.492422
401.84,0.634102
403.507,0.772384
405.174,0.889939
406.842,0.96993
408.509,0.999939
410.176,0.975123
411.844,0.899495
413.511,0.784857
415.179,0.647791
416.846,0.505747
418.513,0.373494
420.181,0.260908
421.848,0.172403
423.515,0.107759
425.183,0.0637112
426.85,0.0356312
428.517,0.0188495
430.185,0.00943236
431.852,0.00446472
433.519,0.00199904
435.187,0.000846645
436.854,0.000339183
438.521,0.000128535
440.189,4.60743e-05
441.856,1.56225e-05
443.523,5.01066e-06
445.191,1.52017e-06
446.858,4.36258e-07
448.525,1.18426e-07
450.193,3.04091e-08
451.86,7.38605e-09
453.527,1.69697e-09
455.195,3.68799e-10
456.862,7.58155e-11
458.529,1.47428e-11
460.197,2.71177e-12
461.864,4.71824e-13
463.531,7.76532e-14
465.199,1.20891e-14
466.866,1.78024e-15
468.533,2.4798e-16
470.201,3.26744e-17
471.868,4.07242e-18
473.536,4.8012e-19
475.203,5.35427e-20
476.87,5.64811e-21
478.538,5.63585e-22
480.205,5.31948e-23
481.872,4.74931e-24
483.54,4.01094e-25
485.207,3.20416e-26
486.874,2.42122e-27
488.542,1.73065e-28
490.209,1.17013e-29
490.307,9.96922e-30