File: CRYSTAL-IR-RAMAN/TiO2_rutile.log-IR.csv
E(cm-1),I
0.01,4.11574e-42
3.35858,2.48764e-39
6.70717,1.20153e-36
10.0557,4.6375e-34
13.4043,1.43034e-31
16.7529,3.52533e-29
20.1015,6.94329e-27
23.4501,1.09279e-24
26.7987,1.3744e-22
30.1472,1.38132e-20
33.4958,1.10938e-18
36.8444,7.1199e-17
40.193,3.65152e-15
43.5416,1.49652e-13
46.8902,4.9012e-12
50.2387,1.28274e-10
53.5873,2.68288e-09
56.9359,4.48442e-08
60.2845,5.99079e-07
63.6331,6.39723e-06
66.9817,5.46171e-05
70.3302,0.000372972
73.6788,0.00203875
77.0274,0.00893261
80.376,0.0314456
83.7246,0.0893146
87.0732,0.206118
90.4217,0.390834
93.7703,0.618743
97.1189,0.833839
100.467,0.973132
103.816,0.990537
107.165,0.873276
110.513,0.65551
113.862,0.410901
117.21,0.211661
120.559,0.0885972
123.908,0.029923
127.256,0.00812031
130.605,0.00176634
133.953,0.000307555
137.302,4.28335e-05
140.65,4.76952e-06
143.999,4.24519e-07
147.348,3.0199e-08
150.696,1.71684e-09
154.045,7.80001e-11
157.393,2.83189e-12
160.742,8.21615e-14
164.091,1.90489e-15
167.439,3.52921e-17
170.788,5.22506e-19
174.136,6.18174e-21
177.485,5.84435e-23
180.833,4.41536e-25
184.182,2.66564e-27
187.531,1.286e-29
190.879,4.95779e-32
194.228,1.52735e-34
197.576,3.76006e-37
200.925,7.39699e-40
204.274,1.16284e-42
207.622,1.4608e-45
210.971,1.46645e-48
214.319,1.17638e-51
217.668,7.5411e-55
221.016,3.86301e-58
224.365,1.58133e-61
227.714,5.17277e-65
231.062,1.35216e-68
234.411,2.8245e-72
237.759,4.71473e-76
241.108,6.28896e-80
244.457,1.30214e-82
247.805,9.94192e-79
251.154,6.39502e-75
254.502,3.28714e-71
257.851,1.35021e-67
261.199,4.43187e-64
264.548,1.16246e-60
267.897,2.43655e-57
271.245,4.0811e-54
274.594,5.46241e-51
277.942,5.84247e-48
281.291,4.99359e-45
284.64,3.41064e-42
287.988,1.8615e-39
291.337,8.11885e-37
294.685,2.82965e-34
298.034,7.88087e-32
301.382,1.75397e-29
304.731,3.11942e-27
308.08,4.43335e-25
311.428,5.03494e-23
314.777,4.56943e-21
318.125,3.31386e-19
321.474,1.92049e-17
324.823,8.89395e-16
328.171,3.29141e-14
331.52,9.73364e-13
334.868,2.30024e-11
338.217,4.34386e-10
341.565,6.55517e-09
344.914,7.90491e-08
348.263,7.61755e-07
351.611,5.86595e-06
354.96,3.60966e-05
358.308,0.000177501
361.657,0.00069749
365.006,0.00219019
368.354,0.00549579
371.703,0.01102
375.051,0.017658
378.4,0.0226103
381.748,0.0231353
385.097,0.0189168
388.446,0.0123602
391.794,0.00645372
395.143,0.00269277
398.491,0.000897828
401.84,0.000239217
405.189,5.09326e-05
408.537,8.66573e-06
411.886,1.1782e-06
415.234,1.28008e-07
418.583,1.11138e-08
421.931,7.71067e-10
425.28,4.2749e-11
428.629,1.89394e-12
431.977,6.70517e-14
435.326,1.89697e-15
438.674,4.28858e-17
442.023,7.74781e-19
445.372,1.21944e-20
448.72,8.64361e-20
452.069,5.89722e-18
455.417,3.21998e-16
458.766,1.40496e-14
462.114,4.89868e-13
465.463,1.3649e-11
468.812,3.03897e-10
472.16,5.40701e-09
475.509,7.68764e-08
478.857,8.73442e-07
482.206,7.93012e-06
485.555,5.75349e-05
488.903,0.00033357
492.252,0.00154543
495.6,0.00572157
498.949,0.0169272
502.297,0.0400187
505.646,0.0756039
508.995,0.114138
512.343,0.137696
515.692,0.132745
519.04,0.102263
522.389,0.0629546
525.738,0.0309699
529.086,0.0121746
532.435,0.00382453
535.783,0.000960074
539.132,0.000192591
542.48,3.08727e-05
545.829,3.95472e-06
549.178,4.04821e-07
552.526,3.31143e-08
555.875,2.16458e-09
559.223,1.13067e-10
562.572,4.71957e-12
565.921,1.57425e-13
569.269,4.19616e-15
572.618,8.93788e-17
575.966,1.52133e-18
579.315,2.06926e-20
582.663,2.24912e-22
586.012,1.95351e-24
589.361,1.35589e-26
592.709,7.52031e-29
596.058,3.33314e-31
599.406,1.18053e-33
602.755,3.34122e-36
606.104,7.5568e-39
609.452,1.36577e-41
612.801,1.97251e-44
616.149,2.2765e-47
619.498,2.09952e-50
622.846,1.54732e-53
626.195,9.1126e-57
629.544,4.28855e-60
632.892,1.61281e-63
636.241,4.84689e-67
639.589,1.16398e-70
642.938,2.23375e-74
646.287,3.42554e-78
649.635,4.19785e-82
652.984,4.11085e-86
656.332,3.21692e-90
659.681,2.01166e-94
663.029,1.00525e-98
666.378,4.01418e-103
669.727,1.28093e-107
673.075,3.26633e-112
676.424,6.65578e-117
679.772,1.08379e-121
683.121,1.41024e-126
686.47,1.46638e-131
689.818,1.21845e-136
693.167,8.09041e-142
696.515,4.29279e-147
699.864,1.82018e-152
703.212,6.16729e-158
706.561,1.66986e-163
709.91,3.613e-169
713.258,6.24688e-175
716.607,8.63104e-181
719.955,9.52945e-187
723.304,8.40771e-193
726.652,5.92779e-199
730.001,3.33974e-205
733.35,1.50362e-211
736.698,5.40963e-218
740.047,1.55526e-224
743.395,3.57308e-231
746.744,6.55977e-238
750.093,9.62363e-245
753.441,1.12822e-251
756.79,1.05695e-258
760.138,7.91261e-266
763.487,4.73359e-273
766.835,2.2629e-280
770.184,8.64464e-288
773.533,2.63896e-295
776.881,6.43759e-303
780.23,1.25493e-310
783.578,1.95488e-318
786.927,0.0
790.276,0.0
793.624,0.0
796.973,0.0
800.321,0.0
803.67,0.0
807.018,0.0
810.367,0.0
813.716,0.0
817.064,0.0
820.413,0.0
823.761,0.0
827.11,0.0
830.459,0.0
833.807,0.0
837.156,0.0
840.504,0.0
843.853,0.0
847.201,0.0
850.55,0.0
853.899,0.0
857.247,0.0
860.596,0.0
863.944,0.0
867.293,0.0
870.642,0.0
873.99,0.0
877.339,0.0
880.687,0.0
884.036,0.0
887.384,0.0
890.733,0.0
894.082,0.0
897.43,0.0
900.779,0.0
904.127,0.0
907.476,0.0
910.825,0.0
914.173,0.0
917.522,0.0
920.87,0.0
924.219,0.0
927.567,0.0
930.916,0.0
934.265,0.0
937.613,0.0
940.962,0.0
944.31,0.0
947.659,0.0
951.008,0.0
954.356,0.0
957.705,0.0
961.053,0.0
964.402,0.0
967.75,0.0
971.099,0.0
974.448,0.0
977.796,0.0
981.145,0.0
984.493,0.0
984.69,0.0